Total Quantum Conductivity (W/m-K) = 	613.661	613.631	613.661
Total Classical Conductivity (W/m-K) = 	478.967	478.942	478.967

Quantum <(Delta/omega)^2>^1/2 = 	0.0105444
Quantum <(Gamma/omega)^2>^1/2 = 	0.000563325

Classical <(Delta/omega)^2>^1/2 = 	0.00849516
Classical <(Gamma/omega)^2>^1/2 = 	0.000578746

Quantum effective MFP (nm) = 	267.553	267.544	267.553
Classical effective MFP (nm) = 	167.018	167.011	167.018

Quantum RMS Displacements in Angstroms
Atom 0:
  0.0706683  0.0706683  0.0706683  :  0.122401
Atom 1:
  0.0706683  0.0706683  0.0706683  :  0.122401
Average Quantum RMS Displacement = 0.122401

Classical RMS Displacements in Angstroms
Atom 0:
  0.0672022  0.0672022  0.0672022  :  0.116398
Atom 1:
  0.0672022  0.0672022  0.0672022  :  0.116398
Average Classical RMS Displacement = 0.116398



Density of States and Frequency Dependence of Thermal Conductivity
Quantum						Classical
Anharm Freq (1/ps)	DOS (area = 1e12)	k-DOS (area = 1e12)		Anharm Freq (1/ps)	DOS (area = 1e12)	k-DOS (area = 1e12)
1.13685	0	0	0	0		1.13685	0	0	0	0
3.41055	0	0	0	0		3.41055	0	0	0	0
5.68426	0	0	0	0		5.68426	0	0	0	0
7.95796	0.000881164	0.0378538	0.0378557	0.0378538		7.95796	0.000881164	0.0201719	0.020173	0.0201719
10.2317	0.000660873	0.0209742	0.0209753	0.0209742		10.2317	0.000660873	0.0207335	0.0207346	0.0207335
12.5054	0.000660873	0.00553916	0.00553386	0.00553916		12.5054	0.000660873	0.00788277	0.00787524	0.00788274
14.7791	0.00330437	0.0563496	0.0563498	0.0563496		14.7791	0	0	0	0
17.0528	0.00297393	0.0342108	0.0342086	0.0342108		17.0528	0.00495655	0.0751785	0.0751805	0.0751785
19.3265	0.00198262	0.0108195	0.01082	0.0108194		19.3265	0.00132175	0.00598263	0.00597864	0.00598263
21.6002	0.00550728	0.019232	0.0192313	0.019232		21.6002	0.00286378	0.0115314	0.011532	0.0115314
23.8739	0.00726961	0.0282207	0.0282186	0.0282207		23.8739	0.00726961	0.0236231	0.0236204	0.0236231
26.1476	0.00616815	0.0102252	0.010225	0.0102252		26.1476	0.00594786	0.021332	0.0213314	0.021332
28.4213	0.0134378	0.0461917	0.0461921	0.0461917		28.4213	0.0074899	0.0157415	0.0157399	0.0157415
30.695	0.0149798	0.0231926	0.0231928	0.0231926		30.695	0.0154204	0.0482159	0.0482183	0.0482159
32.9687	0.0122262	0.0094207	0.00942067	0.0094207		32.9687	0.0209277	0.0192195	0.0192194	0.0192195
35.2424	0.0165218	0.0100182	0.0100185	0.0100182		35.2424	0.0109044	0.00897502	0.00897536	0.00897502
37.5161	0.0178436	0.0313147	0.0313155	0.0313147		37.5161	0.0145392	0.0175524	0.0175533	0.0175524
39.7898	0.0132175	0.00795282	0.00795316	0.00795282		39.7898	0.0171827	0.0155177	0.0155179	0.0155177
42.0635	0.0125566	0.0166013	0.0166022	0.0166013		42.0635	0.00925223	0.00683848	0.00683888	0.00683849
44.3372	0.0099131	0.0123408	0.0123417	0.0123408		44.3372	0.0165218	0.0307906	0.0307924	0.0307906
46.6109	0.00903193	0.00791726	0.0079173	0.00791726		46.6109	0.00969281	0.012632	0.0126327	0.012632
48.8846	0.0102435	0.0119988	0.0119996	0.0119988		48.8846	0.0109044	0.0112642	0.0112653	0.0112642
51.1583	0.00264349	0.00487879	0.00487904	0.00487879		51.1583	0.00462611	0.00879789	0.00879823	0.00879788
53.432	0.00132175	0.00195185	0.00195195	0.00195185		53.432	0	0	0	0
55.7057	0.00528699	0.0070551	0.00705545	0.0070551		55.7057	0.00396524	0.00671868	0.00671904	0.00671868
57.9794	0.00264349	0.00121963	0.00121969	0.00121963		57.9794	0.00264349	0.00368935	0.00368955	0.00368935
60.2531	0.00374495	0.00155121	0.00155128	0.00155121		60.2531	0.00572757	0.00360146	0.00360165	0.00360146
62.5268	0.00561742	0.00173968	0.0017398	0.00173968		62.5268	0.000660873	0.00017262	0.000172625	0.00017262
64.8005	0.00396524	0.000797518	0.000797557	0.000797518		64.8005	0.00958266	0.00359349	0.00359372	0.00359348
67.0742	0.00660873	0.000738342	0.000738406	0.000738342		67.0742	0.00396524	0.000621898	0.000621977	0.000621898
69.3479	0.0145392	0.00154298	0.00154307	0.00154298		69.3479	0.00793048	0.0019178	0.00191793	0.0019178
71.6217	0.00638844	0.00020468	0.000204711	0.00020468		71.6217	0.0110146	0.000660231	0.00066023	0.000660231
73.8954	0.00528699	0.00066017	0.000660206	0.00066017		73.8954	0.00859135	0.000734349	0.00073446	0.000734349
76.1691	0.00165218	0.000155558	0.000155565	0.000155558		76.1691	0.00165218	0.000662868	0.000662904	0.000662868
78.4428	0.00264349	6.83811e-05	6.83844e-05	6.83811e-05		78.4428	0.00264349	0.000186866	0.000186876	0.000186866
80.7165	0.00859135	0.00086731	0.000867385	0.00086731		80.7165	0.00660873	0.00066957	0.000669641	0.00066957
82.9902	0.00925223	0.00190248	0.00190271	0.00190248		82.9902	0.0099131	0.00314686	0.00314738	0.00314686
85.2639	0.0110146	0.00319329	0.00319357	0.00319329		85.2639	0.00793048	0.00279647	0.00279666	0.00279647
87.5376	0.00760004	0.00270808	0.00270827	0.00270808		87.5376	0.00737975	0.00682338	0.00682387	0.00682338
89.8113	0.00396524	0.00159027	0.00159035	0.00159027		89.8113	0.00594786	0.00393764	0.00393786	0.00393764
92.085	0.00528699	0.00228299	0.00228304	0.00228299		92.085	0.00528699	0.00514768	0.0051479	0.00514768
94.3587	0.006058	0.00129184	0.00129188	0.00129184		94.3587	0.00660873	0.00463912	0.00463937	0.00463912
96.6324	0.00396524	0.000972304	0.000972352	0.000972305		96.6324	0.00473626	0.00190119	0.00190125	0.00190119
98.9061	0.0191653	0.000615177	0.000615188	0.000615176		98.9061	0.00594786	0.00133406	0.00133409	0.00133406
101.18	0.0414147	0.000407257	0.000407266	0.000407257		101.18	0.0383306	0.00175522	0.0017553	0.00175522
103.453	0.0512177	0.000581989	0.000582008	0.000581989		103.453	0.0397625	0.00110207	0.00110211	0.00110207
105.727	0.0266552	0.000314679	0.00031467	0.000314679		105.727	0.048464	0.00139937	0.00139938	0.00139937
108.001	0.0177334	0.00012569	0.00012568	0.00012569		108.001	0.0183943	0.000425932	0.000425925	0.000425932
110.275	0.00600293	2.00615e-05	2.00575e-05	2.00615e-05		110.275	0.0112348	0.000178	0.000177974	0.000178
112.548	0	0	0	0		112.548	0.00269857	1.41162e-05	1.41105e-05	1.41162e-05
114.822	0	0	0	0		114.822	0	0	0	0
