Total Quantum Conductivity (W/m-K) = 	612.907	612.877	612.907
Total Classical Conductivity (W/m-K) = 	479.315	479.29	479.315

Quantum <(Delta/omega)^2>^1/2 = 	0.0105443
Quantum <(Gamma/omega)^2>^1/2 = 	0.00056326

Classical <(Delta/omega)^2>^1/2 = 	0.00849511
Classical <(Gamma/omega)^2>^1/2 = 	0.000578676

Quantum effective MFP (nm) = 	267.225	267.216	267.225
Classical effective MFP (nm) = 	167.139	167.133	167.139

Quantum RMS Displacements in Angstroms
Atom 0:
  0.0706683  0.0706683  0.0706683  :  0.122401
Atom 1:
  0.0706683  0.0706683  0.0706683  :  0.122401
Average Quantum RMS Displacement = 0.122401

Classical RMS Displacements in Angstroms
Atom 0:
  0.0672022  0.0672022  0.0672022  :  0.116398
Atom 1:
  0.0672022  0.0672022  0.0672022  :  0.116398
Average Classical RMS Displacement = 0.116398



Density of States and Frequency Dependence of Thermal Conductivity
Quantum						Classical
Anharm Freq (1/ps)	DOS (area = 1e12)	k-DOS (area = 1e12)		Anharm Freq (1/ps)	DOS (area = 1e12)	k-DOS (area = 1e12)
1.13685	0	0	0	0		1.13685	0	0	0	0
3.41055	0	0	0	0		3.41055	0	0	0	0
5.68426	0	0	0	0		5.68426	0	0	0	0
7.95796	0.000881165	0.0378878	0.0378897	0.0378878		7.95796	0.000881165	0.0204307	0.0204318	0.0204307
10.2317	0.000660874	0.020973	0.020974	0.020973		10.2317	0.000660874	0.0207083	0.0207094	0.0207083
12.5054	0.000660874	0.00562869	0.00562331	0.00562869		12.5054	0.000660874	0.00787654	0.00786902	0.00787651
14.7791	0.00330437	0.0563326	0.0563327	0.0563326		14.7791	0	0	0	0
17.0528	0.00297393	0.0341602	0.034158	0.0341602		17.0528	0.00495655	0.0751413	0.0751434	0.0751413
19.3265	0.00198262	0.0108251	0.0108257	0.0108251		19.3265	0.00132175	0.00595989	0.00595591	0.00595989
21.6002	0.00550728	0.0192285	0.0192277	0.0192285		21.6002	0.00286379	0.0115416	0.0115422	0.0115416
23.8739	0.00726961	0.0282091	0.028207	0.0282091		23.8739	0.00726961	0.0236012	0.0235985	0.0236012
26.1476	0.00616815	0.0102327	0.0102325	0.0102327		26.1476	0.00594786	0.0214248	0.0214242	0.0214248
28.4213	0.0134378	0.0461655	0.046166	0.0461655		28.4213	0.0074899	0.015727	0.0157254	0.015727
30.695	0.0149798	0.0232006	0.0232009	0.0232006		30.695	0.0154204	0.0480821	0.0480845	0.0480821
32.9687	0.0122262	0.0093871	0.00938707	0.0093871		32.9687	0.0209277	0.0192033	0.0192032	0.0192033
35.2424	0.0165218	0.0100305	0.0100308	0.0100305		35.2424	0.0109044	0.00899	0.00899034	0.00899
37.5161	0.0178436	0.0313181	0.031319	0.0313181		37.5161	0.0145392	0.0176066	0.0176075	0.0176066
39.7898	0.0132175	0.0079612	0.00796154	0.0079612		39.7898	0.0171827	0.0155053	0.0155055	0.0155053
42.0635	0.0125566	0.0165946	0.0165954	0.0165946		42.0635	0.00925223	0.00683404	0.00683443	0.00683404
44.3372	0.0099131	0.0123497	0.0123506	0.0123497		44.3372	0.0165218	0.030755	0.0307567	0.030755
46.6109	0.00903194	0.00791734	0.00791737	0.00791734		46.6109	0.00969281	0.0126264	0.0126271	0.0126264
48.8846	0.0102435	0.0119694	0.0119703	0.0119694		48.8846	0.0109044	0.0112453	0.0112464	0.0112453
51.1583	0.00264349	0.00487579	0.00487604	0.00487579		51.1583	0.00462611	0.0087853	0.00878564	0.0087853
53.432	0.00132175	0.00195029	0.00195039	0.00195029		53.432	0	0	0	0
55.7057	0.00528699	0.0070503	0.00705066	0.00705031		55.7057	0.00396524	0.00670491	0.00670527	0.00670491
57.9794	0.00264349	0.0012213	0.00122136	0.0012213		57.9794	0.00264349	0.00368118	0.00368138	0.00368118
60.2531	0.00374495	0.00155343	0.0015535	0.00155343		60.2531	0.00572757	0.00360165	0.00360184	0.00360165
62.5268	0.00561742	0.00173998	0.00174009	0.00173998		62.5268	0.000660874	0.0001724	0.000172405	0.0001724
64.8005	0.00396524	0.000798604	0.00079864	0.000798601		64.8005	0.00958267	0.00359003	0.00359026	0.00359003
67.0742	0.00660874	0.000739447	0.000739512	0.000739447		67.0742	0.00396524	0.000621744	0.000621823	0.000621744
69.3479	0.0145392	0.00154443	0.00154453	0.00154443		69.3479	0.00793048	0.00191602	0.00191614	0.00191602
71.6216	0.00638844	0.000204883	0.000204914	0.000204883		71.6216	0.0110146	0.000659474	0.000659472	0.000659474
73.8953	0.00528699	0.000661036	0.000661071	0.000661036		73.8953	0.00859136	0.000733891	0.000734002	0.000733891
76.169	0.00165218	0.000155841	0.000155849	0.000155841		76.169	0.00165218	0.000662381	0.000662416	0.000662381
78.4427	0.00264349	6.84382e-05	6.84415e-05	6.84382e-05		78.4427	0.00264349	0.000186787	0.000186797	0.000186787
80.7164	0.00859136	0.000867597	0.000867672	0.000867597		80.7164	0.00660874	0.000668961	0.000669032	0.000668961
82.9901	0.00925223	0.00190229	0.00190252	0.00190229		82.9901	0.0099131	0.00314287	0.00314339	0.00314287
85.2638	0.0110146	0.00319183	0.0031921	0.00319183		85.2638	0.00793048	0.00279624	0.00279643	0.00279624
87.5375	0.00760005	0.00271005	0.00271024	0.00271005		87.5375	0.00737975	0.00681074	0.00681123	0.00681074
89.8112	0.00396524	0.00159315	0.00159323	0.00159315		89.8112	0.00594786	0.00393418	0.0039344	0.00393418
92.0849	0.00528699	0.00227898	0.00227903	0.00227898		92.0849	0.00528699	0.00514676	0.00514698	0.00514676
94.3586	0.00605801	0.00129381	0.00129386	0.00129381		94.3586	0.00660874	0.00463317	0.00463342	0.00463317
96.6323	0.00396524	0.000971033	0.000971081	0.000971033		96.6323	0.00473626	0.00190013	0.00190019	0.00190013
98.906	0.0191653	0.00061602	0.000616032	0.00061602		98.906	0.00594786	0.00133286	0.00133289	0.00133286
101.18	0.0414147	0.000407685	0.000407695	0.000407685		101.18	0.0383307	0.00175362	0.00175371	0.00175362
103.453	0.0512177	0.000582528	0.000582547	0.000582528		103.453	0.0397626	0.00110106	0.0011011	0.00110106
105.727	0.0266552	0.000314945	0.000314936	0.000314945		105.727	0.0484641	0.00139817	0.00139818	0.00139817
108.001	0.0177334	0.000125817	0.000125807	0.000125817		108.001	0.0183943	0.000425477	0.00042547	0.000425477
110.275	0.00600293	2.00882e-05	2.00842e-05	2.00882e-05		110.275	0.0112348	0.00017786	0.000177834	0.00017786
112.548	0	0	0	0		112.548	0.00269857	1.41037e-05	1.4098e-05	1.41037e-05
114.822	0	0	0	0		114.822	0	0	0	0
